File: examples/mos2/reference/raman_spectra2.dat
#Raman spectra
#Laser energy   2.33 eV
#Raman shift (cm-1), Raman Spectra (XX,YY,ZZ,s+s+,s-s-,XY,YX,s+s-,s-s+)
   350.0000  95.9078  94.4627  72.8806  69.0048  68.6383  25.9938  25.4853  52.1168  52.0897
   351.0025  100.282  98.7716  75.717  71.6907  71.3104  27.6329  27.0921  55.4034  55.3745
   352.0050  104.982  103.401  78.7223  74.5366  74.1417  29.4327  28.8566  59.0124  58.9817
   353.0075  110.042  108.385  81.9101  77.5553  77.145  31.4151  30.8  62.9872  62.9545
   354.0100  115.503  113.763  85.2956  80.7613  80.3347  33.6054  32.9472  67.3791  67.3441
   355.0125  121.412  119.583  88.8953  84.1702  83.7263  36.0338  35.3279  72.2484  72.2109
   356.0150  127.821  125.896  92.7277  87.7997  87.3375  38.736  37.9769  77.6667  77.6264
   357.0175  134.796  132.766  96.8134  91.6691  91.1875  41.7546  40.9363  83.7195  83.6762
   358.0201  142.409  140.265  101.175  95.8  95.2978  45.1412  44.2563  90.51  90.4631
   359.0226  150.749  148.479  105.838  100.217  99.6926  48.9577  47.9978  98.1626  98.1119
   360.0251  159.92  157.513  110.831  104.946  104.399  53.2801  52.2352  106.83  106.774
   361.0276  170.049  167.489  116.186  110.018  109.446  58.2017  57.0601  116.698  116.638
   362.0301  181.287  178.559  121.938  115.467  114.869  63.8383  62.5859  128  127.934
   363.0326  193.821  190.905  128.128  121.331  120.705  70.3351  68.9551  141.027  140.954
   364.0351  207.884  204.757  134.802  127.653  126.997  77.8761  76.3478  156.147  156.067
   365.0376  223.765  220.4  142.01  134.483  133.795  86.6968  84.9952  173.834  173.744
   366.0401  241.833  238.197  149.813  141.876  141.155  97.1031  95.197  194.699  194.599
   367.0426  262.563  258.617  158.276  149.897  149.139  109.498  107.348  219.551  219.438
   368.0451  286.58  282.274  167.476  158.617  157.822  124.419  121.976  249.469  249.341
   369.0476  314.717  309.99  177.502  168.121  167.286  142.6  139.8  285.923  285.776
   370.0501  348.112  342.886  188.456  178.507  177.63  165.059  161.817  330.953  330.784
   371.0526  388.356  382.529  200.454  189.887  188.967  193.242  189.446  387.459  387.261
   372.0551  437.736  431.172  213.636  202.393  201.429  229.255  224.752  459.664  459.429
   373.0576  499.639  492.152  228.16  216.179  215.173  276.264  270.837  553.911  553.629
   374.0602  579.276  570.602  244.216  231.428  230.382  339.186  332.522  680.061  679.715
   375.0627  685.001  674.753  262.026  248.358  247.281  425.985  417.615  854.076  853.641
   376.0652  830.9  818.48  281.856  267.231  266.139  550.19  539.379  1103.07  1102.51
   377.0677  1042.17  1026.6  304.022  288.367  287.293  736.148  721.682  1475.85  1475.09
   378.0702  1367.13  1346.74  328.906  312.168  311.176  1030.79  1010.53  2066.45  2065.4
   379.0727  1906.4  1878  356.97  339.155  338.378  1532.12  1502  3071.28  3069.71
   380.0752  2887.51  2844.54  388.78  370.051  369.779  2462.27  2413.87  4935.44  4932.92
   381.0777  4840.55  4768.58  425.032  405.956  406.851  4339.26  4253.98  8697.01  8692.56
   382.0802  8579.77  8452.31  466.593  448.365  451.659  7957.08  7800.68  15949  15940.8
   383.0827  11640.5  11467.6  514.545  496.245  501.414  10893.5  10679.4  21847.2  21836.2
   384.0852  8496.97  8370.7  570.254  546.31  548.919  7762.46  7609.89  15576.3  15568.5
   385.0877  4933.07  4859.67  635.501  605.052  604.753  4223.79  4140.78  8475.85  8471.65
   386.0902  3143.28  3096.4  712.589  676.465  674.442  2406.31  2359.01  4828.25  4825.85
   387.0927  2305.02  2270.56  804.554  762.735  759.571  1503.15  1473.61  3015.78  3014.27
   388.0952  1909.63  1880.99  915.465  867.288  863.184  1014.4  994.469  2035.02  2034
   389.0977  1743.04  1716.83  1050.88  995.202  990.174  726.149  711.883  1456.63  1455.89
   390.1003  1715.58  1689.72  1218.54  1153.73  1147.68  543.725  533.045  1090.61  1090.05
   391.1028  1791.09  1764.04  1429.49  1353.27  1346.02  421.623  413.344  845.627  845.185
   392.1053  1960.67  1931.02  1699.89  1609.11  1600.37  336.159  329.561  674.146  673.785
   393.1078  2233.98  2200.16  2054.12  1944.31  1933.65  274.136  268.759  549.689  549.386
   394.1103  2639.32  2599.33  2530.33  2394.96  2381.76  227.774  223.311  456.64  456.377
   395.1128  3230.88  3181.89  3190.69  3019.91  3003.18  192.262  188.5  385.342  385.105
   396.1153  4106.77  4044.47  4141.7  3919.94  3898.17  164.511  161.299  329.585  329.363
   397.1178  5448.97  5366.28  5576.94  5278.26  5248.88  142.478  139.706  285.253  285.033
   398.1203  7615.08  7499.5  7873.96  7452.19  7410.67  124.794  122.38  249.565  249.33
   399.1228  11363.8  11191.2  11831.5  11197.7  11135.3  110.572  108.457  220.667  220.392
   400.1253  18435.1  18155.2  19280.1  18247.2  18145.4  99.3547  97.4963  197.47  197.102
   401.1278  32835.5  32337  34433  32588.1  32406.2  91.2208  89.5955  179.736  179.165
   402.1303  59352.4  58451.2  62324.4  58985.1  58655.8  86.5016  85.1038  167.658  166.703
   403.1328  73931.2  72808.6  77661.7  73500.7  73090.3  81.2325  80.0122  155.653  154.49
   404.1353  48747.2  48007  51188.3  48445.6  48175.2  70.9438  69.798  137.495  136.711
   405.1378  26460.1  26058.4  27759.9  26272.6  26125.9  61.9491  60.8669  121.648  121.199
   406.1404  15310.3  15077.9  16041.4  15181.9  15097.2  55.3592  54.35  109.527  109.248
   407.1429  9706.88  9559.51  10154.1  9610.1  9556.47  50.2083  49.2719  99.7472  99.5555
   408.1454  6629.72  6529.07  6922.62  6551.76  6515.2  45.9441  45.0758  91.4969  91.3544
   409.1479  4791.76  4719.01  4993.66  4726.16  4699.8  42.2954  41.4895  84.3592  84.2473
   410.1504  3616.44  3561.54  3761.08  3559.61  3539.76  39.1128  38.3636  78.0913  77.9997
   411.1529  2822.97  2780.12  2929.66  2772.74  2757.28  36.3027  35.6047  72.533  72.4558
   412.1554  2263.52  2229.16  2344  2218.46  2206.1  33.8003  33.1486  67.5686  67.5021
   413.1579  1854.9  1826.74  1916.69  1814.05  1803.94  31.5573  30.9476  63.11  63.0517
   414.1604  1547.63  1524.14  1595.73  1510.28  1501.87  29.5365  28.965  59.0869  59.035
   415.1629  1310.89  1290.99  1348.73  1276.51  1269.41  27.7077  27.171  55.4422  55.3956
   416.1654  1124.68  1107.61  1154.69  1092.87  1086.79  26.0466  25.5415  52.1286  52.0864
   417.1679  975.6  960.796  999.547  946.038  940.772  24.5324  24.0564  49.1062  49.0677
   418.1704  854.412  841.447  873.589  826.829  822.228  23.1481  22.6986  46.3415  46.3061
   419.1729  754.567  743.118  769.954  728.747  724.693  21.8788  21.4538  43.8055  43.7728
   420.1754  671.332  661.147  683.675  647.091  643.492  20.712  20.3095  41.4734  41.4431
   421.1779  601.214  592.093  611.093  578.398  575.182  19.6368  19.2551  39.3238  39.2956
   422.1805  541.592  533.376  549.459  520.068  517.176  18.6438  18.2813  37.338  37.3117
   423.1830  490.469  483.028  496.683  470.12  467.507  17.7248  17.3801  35.4996  35.475
   424.1855  446.299  439.529  451.148  427.026  424.653  16.8725  16.5443  33.7945  33.7713
   425.1880  407.874  401.687  411.59  389.588  387.424  16.0805  15.7677  32.2098  32.188
   426.1905  374.237  368.561  377.008  356.86  354.878  15.3433  15.0448  30.7346  30.714
   427.1930  344.623  339.396  346.602  328.085  326.263  14.656  14.3708  29.3589  29.3394
   428.1955  318.413  313.584  319.727  302.651  300.971  14.0141  13.7414  28.0739  28.0554
   429.1980  295.103  290.627  295.857  280.063  278.508  13.4136  13.1526  26.8719  26.8544
   430.2005  274.28  270.12  274.561  259.91  258.467  12.8511  12.6011  25.7458  25.7291
   431.2030  255.6  251.724  255.482  241.856  240.513  12.3235  12.0837  24.6893  24.6735
   432.2055  238.78  235.159  238.323  225.619  224.367  11.8279  11.5977  23.6969  23.6818
   433.2080  223.579  220.189  222.835  210.964  209.793  11.3617  11.1407  22.7634  22.749
   434.2105  209.795  206.614  208.808  197.692  196.595  10.9227  10.7102  21.8843  21.8704
   435.2130  197.258  194.267  196.064  185.635  184.605  10.5088  10.3044  21.0553  21.0421
   436.2155  185.82  183.003  184.452  174.649  173.68  10.1181  9.92129  20.2728  20.2602
   437.2180  175.358  172.699  173.841  164.612  163.698  9.74889  9.5593  19.5334  19.5213
   438.2206  165.762  163.249  164.119  155.417  154.554  9.39966  9.21688  18.8339  18.8222
   439.2231  156.94  154.56  155.19  146.973  146.157  9.06896  8.89263  18.1715  18.1603
   440.2256  148.811  146.554  146.97  139.201  138.428  8.75552  8.5853  17.5436  17.5329
   441.2281  141.304  139.161  139.387  132.032  131.299  8.45814  8.29372  16.9479  16.9376
   442.2306  134.357  132.32  132.375  125.406  124.71  8.17574  8.01684  16.3822  16.3722
   443.2331  127.917  125.978  125.879  119.269  118.607  7.90735  7.75368  15.8445  15.8349
   444.2356  121.936  120.087  119.851  113.577  112.946  7.65203  7.50335  15.3331  15.3238
   445.2381  116.373  114.608  114.245  108.286  107.685  7.40896  7.26502  14.8461  14.8371
   446.2406  111.189  109.502  109.023  103.363  102.788  7.17737  7.03795  14.3821  14.3735
   447.2431  106.353  104.739  104.152  98.7742  98.2245  6.95653  6.82142  13.9397  13.9313
   448.2456  101.835  100.29  99.6005  94.4924  93.9661  6.74581  6.61481  13.5175  13.5094
   449.2481  97.6107  96.1293  95.3414  90.4929  89.9883  6.54458  6.41751  13.1143  13.1065
   450.0000  94.6217  93.1852  92.3243  87.6657  87.1763  6.39955  6.27531  12.8237  12.8161