File: examples/mos2/reference/raman_spectra3.dat
#Raman spectra
#Laser energy   2.54 eV
#Raman shift (cm-1), Raman Spectra (XX,YY,ZZ,s+s+,s-s-,XY,YX,s+s-,s-s+)
   350.0000  125.671  122.27  66.4692  67.5697  67.0936  55.7567  54.9235  112  111.957
   351.0025  131.959  128.39  69.0561  70.2001  69.7061  59.2836  58.3975  119.085  119.039
   352.0050  138.761  135.011  71.797  72.9872  72.4743  63.1562  62.2121  126.864  126.816
   353.0075  146.139  142.193  74.7044  75.9436  75.4107  67.4214  66.4134  135.432  135.38
   354.0100  154.163  150.002  77.792  79.0835  78.5294  72.134  71.0553  144.899  144.843
   355.0125  162.914  158.521  81.075  82.4222  81.8458  77.3586  76.2017  155.394  155.334
   356.0150  172.49  167.843  84.5703  85.9769  85.3768  83.1723  81.9282  167.072  167.008
   357.0175  183.005  178.078  88.2965  89.7667  89.1415  89.6667  88.3253  180.118  180.049
   358.0201  194.593  189.359  92.2744  93.8128  93.161  96.9525  95.5018  194.753  194.678
   359.0226  207.415  201.842  96.5274  98.1388  97.4587  105.163  103.589  211.246  211.166
   360.0251  221.667  215.717  101.081  102.771  102.061  114.462  112.749  229.926  229.838
   361.0276  237.585  231.215  105.965  107.74  106.997  125.05  123.178  251.194  251.098
   362.0301  255.46  248.619  111.211  113.077  112.301  137.176  135.122  275.552  275.446
   363.0326  275.65  268.277  116.857  118.822  118.01  151.152  148.889  303.626  303.51
   364.0351  298.605  290.63  122.943  125.016  124.165  167.375  164.868  336.213  336.084
   365.0376  324.897  316.232  129.517  131.708  130.816  186.35  183.559  374.329  374.186
   366.0401  355.257  345.797  136.633  138.951  138.017  208.737  205.609  419.296  419.136
   367.0426  390.639  380.255  144.352  146.81  145.83  235.4  231.873  472.854  472.673
   368.0451  432.309  420.839  152.743  155.356  154.327  267.499  263.49  537.329  537.124
   369.0476  481.973  469.211  161.887  164.672  163.592  306.61  302.015  615.89  615.655
   370.0501  541.98  527.659  171.876  174.853  173.72  354.924  349.603  712.933  712.661
   371.0526  615.642  599.413  182.82  186.011  184.823  415.55  409.32  834.705  834.387
   372.0551  707.755  689.145  194.841  198.275  197.033  493.022  485.629  990.311  989.933
   373.0576  825.476  803.829  208.087  211.8  210.505  594.146  585.236  1193.42  1192.96
   374.0602  979.871  954.249  222.731  226.766  225.424  729.504  718.562  1465.28  1464.72
   375.0627  1188.78  1157.79  238.974  243.393  242.014  916.226  902.481  1840.29  1839.58
   376.0652  1482.4  1443.88  257.059  261.944  260.554  1183.41  1165.66  2376.88  2375.97
   377.0677  1914.92  1865.33  277.275  282.75  281.392  1583.44  1559.68  3180.23  3179.01
   378.0702  2590.56  2523.71  299.969  306.229  304.995  2217.28  2184  4453.01  4451.31
   379.0727  3726.6  3630.75  325.564  332.953  332.028  3295.72  3246.25  6618.44  6615.9
   380.0752  5815.06  5665.97  354.575  363.765  363.551  5296.65  5217.14  10635.8  10631.7
   381.0777  10002.8  9747.02  387.636  400.057  401.471  9334.43  9194.3  18742.1  18734.9
   382.0802  18051.8  17591  425.537  443.775  448.523  17117  16860.1  34370.4  34357.2
   383.0827  24624.6  23996.4  469.267  492.436  499.795  23433.9  23082.1  47081.3  47063.6
   384.0852  17756.1  17302.6  520.079  539.544  543.387  16698.4  16447.7  33567.1  33554.8
   385.0877  9966.86  9711.4  579.589  594.896  594.748  9086.01  8949.62  18265.5  18258.8
   386.0902  6005.3  5850.46  649.897  663.7  661.202  5176.25  5098.57  10404.8  10400.9
   387.0927  4087.19  3980.92  733.773  747.605  743.569  3233.39  3184.88  6498.81  6496.41
   388.0952  3106.63  3024.99  834.927  849.662  844.372  2181.99  2149.27  4385.24  4383.61
   389.0977  2593.95  2524.98  958.429  974.71  968.199  1561.89  1538.49  3138.79  3137.61
   390.1003  2346.27  2283.14  1111.34  1129.79  1121.94  1169.46  1151.95  2349.99  2349.1
   391.1028  2272.95  2211.1  1303.73  1325.06  1315.64  906.778  893.222  1822.02  1821.33
   392.1053  2336.55  2272.32  1550.34  1575.46  1564.09  722.911  712.127  1452.46  1451.9
   393.1078  2530.63  2460.47  1873.41  1903.58  1889.7  589.467  580.7  1184.22  1183.76
   394.1103  2873.63  2793.41  2307.73  2344.72  2327.53  489.704  482.454  983.671  983.276
   395.1128  3413.09  3317.28  2909.99  2956.5  2934.72  413.27  407.194  829.978  829.634
   396.1153  4241.84  4122.28  3777.33  3837.58  3809.22  353.512  348.372  709.759  709.448
   397.1178  5536.59  5380.05  5086.31  5167.31  5129.05  306.022  301.653  614.127  613.836
   398.1203  7647.75  7431.04  7181.26  7295.51  7241.41  267.834  264.131  537.067  536.78
   399.1228  11321.1  10999.8  10790.7  10962.2  10880.9  236.988  233.907  474.529  474.221
   400.1253  18269.3  17750.3  17584  17863.4  17730.7  212.383  209.971  424.043  423.673
   401.1278  32436.6  31514.6  31403.8  31902.7  31665.7  193.918  192.393  384.819  384.297
   402.1303  58536.7  56872.2  56841.4  57744.4  57315.3  181.986  181.763  356.939  356.119
   403.1328  72883.1  70810.5  70829.5  71954.6  71419.8  169.672  170.251  330.049  329.07
   404.1353  48077.1  46710.1  46685  47426.6  47074.2  149.231  149.051  292.679  292.006
   405.1378  26124.7  25382  25317.7  25720  25528.8  131.378  130.523  260.086  259.683
   406.1404  15139.8  14709.5  14630.2  14862.6  14752.2  117.951  116.826  234.746  234.482
   407.1429  9616.96  9343.75  9260.8  9407.98  9338.1  107.247  106.046  214.062  213.87
   408.1454  6582.35  6395.43  6313.6  6413.97  6366.34  98.2806  97.0842  196.499  196.349
   409.1479  4768.48  4633.12  4554.35  4626.77  4592.42  90.5553  89.3973  181.246  181.123
   410.1504  3607.53  3505.18  3430.2  3484.75  3458.89  83.7883  82.6822  167.821  167.717
   411.1529  2822.97  2742.92  2671.92  2714.43  2694.29  77.7969  76.7473  155.899  155.809
   412.1554  2269.17  2204.85  2137.79  2171.82  2155.71  72.4515  71.4587  145.241  145.161
   413.1579  1864.17  1811.35  1748.07  1775.9  1762.74  67.6544  66.7163  135.662  135.59
   414.1604  1559.22  1515.07  1455.35  1478.53  1467.57  63.3282  62.4422  127.014  126.949
   415.1629  1323.94  1286.47  1230.08  1249.68  1240.42  59.4106  58.5735  119.177  119.118
   416.1654  1138.61  1106.4  1053.11  1069.9  1061.97  55.85  55.0585  112.05  111.996
   417.1679  990.014  962.017  911.613  926.151  919.291  52.6032  51.8543  105.549  105.498
   418.1704  869.031  844.467  796.736  809.449  803.455  49.6338  48.9243  99.5999  99.553
   419.1729  769.201  747.468  702.218  713.429  708.147  46.9105  46.2377  94.1426  94.0989
   420.1754  685.847  666.477  623.53  633.49  628.802  44.4066  43.7679  89.1237  89.0828
   421.1779  615.517  598.14  557.332  566.241  562.051  42.0988  41.4919  84.497  84.4587
   422.1805  555.619  539.94  501.121  509.137  505.371  39.9671  39.3898  80.2226  80.1866
   423.1830  504.178  489.956  452.988  460.239  456.835  37.994  37.4441  76.2654  76.2314
   424.1855  459.663  446.701  411.459  418.051  414.96  36.1638  35.6396  72.5947  72.5626
   425.1880  420.877  409.013  375.381  381.4  378.58  34.4632  33.9629  69.1834  69.1529
   426.1905  386.871  375.97  343.841  349.359  346.777  32.8802  32.4022  66.0075  65.9786
   427.1930  356.885  346.832  316.11  321.189  318.816  31.404  30.947  63.0458  63.0183
   428.1955  330.306  321.005  291.599  296.29  294.101  30.0253  29.5879  60.2794  60.2533
   429.1980  306.632  298  269.829  274.176  272.15  28.7356  28.3166  57.6915  57.6667
   430.2005  285.452  277.419  250.407  254.446  252.567  27.5275  27.1258  55.2671  55.2434
   431.2030  266.425  258.929  233.006  236.771  235.023  26.3941  26.0086  52.9927  52.97
   432.2055  249.266  242.256  217.357  220.875  219.245  25.3295  24.9593  50.856  50.8343
   433.2080  233.737  227.165  203.231  206.528  205.003  24.3281  23.9724  48.8462  48.8255
   434.2105  219.637  213.463  190.438  193.535  192.106  23.3851  23.0429  46.9535  46.9336
   435.2130  206.793  200.982  178.816  181.731  180.389  22.496  22.1666  45.1689  45.1498
   436.2155  195.061  189.581  168.225  170.975  169.713  21.6567  21.3395  43.4843  43.466
   437.2180  184.314  179.137  158.547  161.148  159.958  20.8637  20.5579  41.8924  41.8748
   438.2206  174.445  169.547  149.68  152.145  151.022  20.1135  19.8186  40.3865  40.3696
   439.2231  165.36  160.718  141.537  143.878  142.816  19.4031  19.1185  38.9605  38.9442
   440.2256  156.977  152.572  134.04  136.269  135.263  18.7298  18.455  37.6088  37.5931
   441.2281  149.227  145.04  127.124  129.249  128.296  18.091  17.8255  36.3264  36.3113
   442.2306  142.046  138.061  120.729  122.761  121.855  17.4844  17.2277  35.1087  35.0941
   443.2331  135.381  131.584  114.805  116.753  115.891  16.9079  16.6596  33.9512  33.9372
   444.2356  129.183  125.561  109.306  111.178  110.357  16.3595  16.1192  32.8502  32.8366
   445.2381  123.41  119.951  104.193  105.997  105.215  15.8374  15.6047  31.802  31.7889
   446.2406  118.025  114.717  99.4311  101.175  100.428  15.3399  15.1145  30.8033  30.7906
   447.2431  112.995  109.829  94.9883  96.6808  95.9661  14.8656  14.6471  29.851  29.8387
   448.2456  108.29  105.256  90.837  92.4862  91.8021  14.413  14.2011  28.9423  28.9304
   449.2481  103.885  100.975  86.9524  88.5675  87.9118  13.9808  13.7752  28.0745  28.063
   450.0000  100.765  97.9423  84.2005  85.7966  85.1609  13.6693  13.4683  27.4491  27.4379